###Wavelength(nm)     Reflectioncoefficient     Absorbptioncoefficient
400	0.273	0.727
401	0.271	0.729
402	0.268	0.732
403	0.264	0.736
404	0.261	0.739
405	0.258	0.742
406	0.253	0.747
407	0.247	0.753
408	0.243	0.757
409	0.237	0.763
410	0.232	0.768
411	0.227	0.773
412	0.222	0.778
413	0.216	0.784
414	0.211	0.789
415	0.205	0.795
416	0.199	0.801
417	0.194	0.806
418	0.189	0.811
419	0.184	0.816
420	0.178	0.822
421	0.173	0.827
422	0.168	0.832
423	0.163	0.837
424	0.157	0.843
425	0.153	0.847
426	0.149	0.851
427	0.145	0.855
428	0.141	0.859
429	0.137	0.863
430	0.131	0.869
431	0.128	0.872
432	0.125	0.875
433	0.121	0.879
434	0.117	0.883
435	0.113	0.887
436	0.111	0.889
437	0.109	0.891
438	0.106	0.894
439	0.103	0.897
440	0.100	0.900
441	0.099	0.901
442	0.097	0.903
443	0.096	0.904
444	0.094	0.906
445	0.092	0.908
446	0.091	0.909
447	0.089	0.911
448	0.088	0.912
449	0.086	0.914
450	0.085	0.915
451	0.085	0.915
452	0.084	0.916
453	0.083	0.917
454	0.082	0.918
455	0.082	0.918
456	0.082	0.918
457	0.081	0.919
458	0.081	0.919
459	0.080	0.920
460	0.080	0.920
461	0.080	0.920
462	0.080	0.920
463	0.081	0.919
464	0.081	0.919
465	0.082	0.918
466	0.083	0.917
467	0.084	0.916
468	0.084	0.916
469	0.085	0.915
470	0.086	0.914
471	0.088	0.912
472	0.089	0.911
473	0.091	0.909
474	0.093	0.907
475	0.095	0.905
476	0.096	0.904
477	0.098	0.902
478	0.100	0.900
479	0.102	0.898
480	0.105	0.895
481	0.108	0.892
482	0.112	0.888
483	0.114	0.886
484	0.117	0.883
485	0.120	0.880
486	0.123	0.877
487	0.127	0.873
488	0.132	0.868
489	0.136	0.864
490	0.139	0.861
491	0.143	0.857
492	0.148	0.852
493	0.152	0.848
494	0.157	0.843
495	0.162	0.838
496	0.167	0.833
497	0.171	0.829
498	0.176	0.824
499	0.182	0.818
500	0.187	0.813
501	0.193	0.807
502	0.198	0.802
503	0.204	0.796
504	0.210	0.790
505	0.217	0.783
506	0.223	0.777
507	0.229	0.771
508	0.236	0.764
509	0.242	0.758
510	0.249	0.751
511	0.256	0.744
512	0.264	0.736
513	0.271	0.729
514	0.278	0.722
515	0.285	0.715
516	0.292	0.708
517	0.300	0.700
518	0.307	0.693
519	0.314	0.686
520	0.322	0.678
521	0.330	0.670
522	0.338	0.662
523	0.345	0.655
524	0.353	0.647
525	0.361	0.639
526	0.370	0.630
527	0.378	0.622
528	0.385	0.615
529	0.393	0.607
530	0.400	0.600
531	0.408	0.592
532	0.416	0.584
533	0.424	0.576
534	0.432	0.568
535	0.440	0.560
536	0.448	0.552
537	0.454	0.546
538	0.462	0.538
539	0.469	0.531
540	0.477	0.523
541	0.484	0.516
542	0.491	0.509
543	0.498	0.502
544	0.505	0.495
545	0.511	0.489
546	0.517	0.483
547	0.523	0.477
548	0.530	0.470
549	0.536	0.464
550	0.541	0.459
551	0.547	0.453
552	0.552	0.448
553	0.557	0.443
554	0.562	0.438
555	0.567	0.433
556	0.572	0.428
557	0.576	0.424
558	0.580	0.420
559	0.583	0.417
560	0.587	0.413
561	0.591	0.409
562	0.594	0.406
563	0.596	0.404
564	0.599	0.401
565	0.602	0.398
566	0.605	0.395
567	0.607	0.393
568	0.607	0.393
569	0.608	0.392
570	0.611	0.389
571	0.613	0.387
572	0.614	0.386
573	0.614	0.386
574	0.615	0.385
575	0.615	0.385
576	0.615	0.385
577	0.616	0.384
578	0.616	0.384
579	0.615	0.385
580	0.615	0.385
581	0.614	0.386
582	0.613	0.387
583	0.612	0.388
584	0.611	0.389
585	0.610	0.390
586	0.609	0.391
587	0.608	0.392
588	0.606	0.394
589	0.605	0.395
590	0.602	0.398
591	0.601	0.399
592	0.600	0.400
593	0.598	0.402
594	0.596	0.404
595	0.593	0.407
596	0.590	0.410
597	0.587	0.413
598	0.584	0.416
599	0.582	0.418
600	0.579	0.421
601	0.576	0.424
602	0.573	0.427
603	0.571	0.429
604	0.568	0.432
605	0.566	0.434
606	0.563	0.437
607	0.561	0.439
608	0.557	0.443
609	0.555	0.445
610	0.552	0.448
611	0.549	0.451
612	0.546	0.454
613	0.543	0.457
614	0.540	0.460
615	0.538	0.462
616	0.534	0.466
617	0.531	0.469
618	0.528	0.472
619	0.525	0.475
620	0.522	0.478
621	0.519	0.481
622	0.516	0.484
623	0.513	0.487
624	0.510	0.490
625	0.507	0.493
626	0.505	0.495
627	0.502	0.498
628	0.500	0.500
629	0.499	0.501
630	0.496	0.504
631	0.494	0.506
632	0.492	0.508
633	0.488	0.512
634	0.485	0.515
635	0.482	0.518
636	0.480	0.520
637	0.478	0.522
638	0.476	0.524
639	0.474	0.526
640	0.472	0.528
641	0.470	0.530
642	0.468	0.532
643	0.466	0.534
644	0.465	0.535
645	0.463	0.537
646	0.461	0.539
647	0.460	0.540
648	0.457	0.543
649	0.456	0.544
650	0.455	0.545
651	0.453	0.547
652	0.451	0.549
653	0.450	0.550
654	0.448	0.552
655	0.447	0.553
656	0.446	0.554
657	0.443	0.557
658	0.442	0.558
659	0.441	0.559
660	0.440	0.560
661	0.438	0.562
662	0.438	0.562
663	0.436	0.564
664	0.435	0.565
665	0.434	0.566
666	0.433	0.567
667	0.433	0.567
668	0.432	0.568
669	0.430	0.570
670	0.429	0.571
671	0.429	0.571
672	0.428	0.572
673	0.428	0.572
674	0.426	0.574
675	0.426	0.574
676	0.426	0.574
677	0.427	0.573
678	0.426	0.574
679	0.426	0.574
680	0.424	0.576
681	0.424	0.576
682	0.425	0.575
683	0.425	0.575
684	0.425	0.575
685	0.424	0.576
686	0.424	0.576
687	0.425	0.575
688	0.424	0.576
689	0.425	0.575
690	0.425	0.575
691	0.424	0.576
692	0.424	0.576
693	0.423	0.577
694	0.422	0.578
695	0.421	0.579
696	0.422	0.578
697	0.423	0.577
698	0.422	0.578
699	0.423	0.577
700	0.422	0.578
